##TITLE= Adamantane
##JCAMP-DX= 4.24 
##DATA TYPE= SPECTRUM 
##DATA CLASS= XYDATA 
##ORIGIN= Bristol University
##OWNER= Paul May
##NPOINTS= 1791 
##XUNITS= Wavenumber / cm-1  
##YUNITS= Intensity 
##DATE= 01/05/22 
##TIME= 08:02:14.00 
##SPECTROMETER/DATA SYSTEM= Renishaw Laser Raman
##RESOLUTION= 1.000000
##FIRSTX= 3101.440430 
##LASTX= 101.348824 
##XFACTOR= 1.0 
##YFACTOR= 1.0  
##FIRSTY= 38 
##MAXY= 20518     
##MINY= 2
##$ASSIGNMENT TYPE=CHIME
##$CHIME TARGET=CHIMEDISP 
##PEAK ASSIGNMENT= (XYWA) 
##XYDATA= (X++(Y..Y))
3101.440430	38
3099.764401	37.188
3098.088372	37.249
3096.412343	36.562
3094.736314	34.004
3093.060286	39.551
3091.384257	39.245
3089.708228	40.691
3088.032199	37.527
3086.356170	36.359
3084.680141	37.865
3083.004113	36.849
3081.328084	36.116
3079.652055	43
3077.976026	46.019
3076.299997	47.211
3074.623968	45.055
3072.947940	44.312
3071.271911	47.017
3069.595882	50.043
3067.919853	52.409
3066.243824	43.234
3064.567795	50.279
3062.891767	52.992
3061.215738	53.905
3059.539709	54.694
3057.863680	57.575
3056.187651	56.064
3054.511622	58.158
3052.835594	57.982
3051.159565	57.559
3049.483536	60.4
3047.807507	61.879
3046.131478	63.474
3044.455449	69.808
3042.779421	68.091
3041.103392	68.612
3039.427363	70.102
3037.751334	71.953
3036.075305	74.394
3034.399276	78.855
3032.723248	83.487
3031.047219	82.006
3029.371190	86.89
3027.695161	94.944
3026.019132	93.564
3024.343103	98.142
3022.667075	95.547
3020.991046	101.06
3019.315017	111.98
3017.638988	113.22
3015.962959	118.49
3014.286931	124.3
3012.610902	127.99
3010.934873	135.09
3009.258844	144.53
3007.582815	136.95
3005.906786	151.88
3004.230758	158.69
3002.554729	171.06
3000.878700	186.41
2999.202671	188.01
2997.526642	192.63
2995.850613	217.99
2994.174585	216.47
2992.498556	221.78
2990.822527	248.03
2989.146498	255.44
2987.470469	278.81
2985.794440	282.31
2984.118412	307.5
2982.442383	325.8
2980.766354	337.44
2979.090325	370.23
2977.414296	380.83
2975.738267	417.21
2974.062239	452.48
2972.386210	467.03
2970.710181	498.44
2969.034152	521.22
2967.358123	554.76
2965.682094	600.67
2964.006066	646.99
2962.330037	704.8
2960.654008	751.52
2958.977979	801.8
2957.301950	853.85
2955.625921	966.97
2953.949893	1066.2
2952.273864	1204.1
2950.597835	1399.2
2948.921806	1605.2
2947.245777	2009.2
2945.569748	2481.2
2943.893720	2901.3
2942.217691	3191.8
2940.541662	3221
2938.865633	3046.5
2937.189604	2739.1
2935.513575	2411
2933.837547	2180.7
2932.161518	2202.5
2930.485489	2405.8
2928.809460	2792.9
2927.133431	3283.7
2925.457403	3985.5
2923.781374	4845.4
2922.105345	6136.7
2920.429316	8156.8
2918.753287	11309
2917.077258	15949
2915.401230	20518
2913.725201	21726
2912.049172	18488
2910.373143	13746
2908.697114	10195
2907.021085	8306
2905.345057	7285
2903.669028	6808
2901.992999	6521.3
2900.316970	6452.4
2898.640941	6577.9
2896.964912	6944.5
2895.288884	7394.1
2893.612855	7683
2891.936826	7604.2
2890.260797	7203.3
2888.584768	6501.8
2886.908739	5708.7
2885.232711	5097.3
2883.556682	4359.5
2881.880653	3763.2
2880.204624	3215.6
2878.528595	2710
2876.852566	2206.7
2875.176538	1884.7
2873.500509	1677.6
2871.824480	1456.1
2870.148451	1352.7
2868.472422	1277.3
2866.796393	1236.6
2865.120365	1229.2
2863.444336	1258.5
2861.768307	1274.2
2860.092278	1364.2
2858.416249	1465.9
2856.740220	1606.6
2855.064192	1873.3
2853.388163	2233
2851.712134	2972
2850.036105	3872.4
2848.360076	4759.8
2846.684047	5240.4
2845.008019	4905.6
2843.331990	4047.3
2841.655961	2952.1
2839.979932	2073.2
2838.303903	1454
2836.627875	1025.5
2834.951846	786.68
2833.275817	596.32
2831.599788	489.11
2829.923759	398.34
2828.247730	351.64
2826.571702	306.54
2824.895673	285.7
2823.219644	270.06
2821.543615	251.47
2819.867586	224.88
2818.191557	217.57
2816.515529	192.52
2814.839500	181.55
2813.163471	166.13
2811.487442	153.72
2809.811413	158.51
2808.135384	170.97
2806.459356	188.29
2804.783327	208.82
2803.107298	218.1
2801.431269	215.51
2799.755240	185.49
2798.079211	159.23
2796.403183	128.83
2794.727154	124.5
2793.051125	112.66
2791.375096	109.05
2789.699067	109.68
2788.023038	105.01
2786.347010	110.57
2784.670981	99.865
2782.994952	86.11
2781.318923	79.718
2779.642894	74.505
2777.966865	72.417
2776.290837	73.36
2774.614808	67.513
2772.938779	69.797
2771.262750	68.657
2769.586721	75
2767.910692	76.459
2766.234664	76.124
2764.558635	71.943
2762.882606	79.124
2761.206577	82.918
2759.530548	81.178
2757.854519	85.169
2756.178491	92.455
2754.502462	91.222
2752.826433	79.05
2751.150404	71.532
2749.474375	68.014
2747.798347	71.019
2746.122318	64.446
2744.446289	67.127
2742.770260	75.742
2741.094231	78.684
2739.418202	84.735
2737.742174	104.13
2736.066145	134.14
2734.390116	162.06
2732.714087	185.51
2731.038058	182.11
2729.362029	150.79
2727.686001	119.49
2726.009972	115.78
2724.333943	127.16
2722.657914	136.85
2720.981885	169.63
2719.305856	200
2717.629828	193.86
2715.953799	166.91
2714.277770	133.15
2712.601741	103.18
2710.925712	95.233
2709.249683	89.603
2707.573655	112.55
2705.897626	146.6
2704.221597	197.39
2702.545568	275.01
2700.869539	404.35
2699.193510	537.91
2697.517482	528.31
2695.841453	407.28
2694.165424	245.63
2692.489395	157.3
2690.813366	119.87
2689.137337	89.358
2687.461309	87.508
2685.785280	86.705
2684.109251	75.743
2682.433222	66.722
2680.757193	62.235
2679.081164	61.306
2677.405136	60.33
2675.729107	63.374
2674.053078	64
2672.377049	74.044
2670.701020	74.149
2669.024991	68.52
2667.348963	66.263
2665.672934	66.36
2663.996905	66.342
2662.320876	68.591
2660.644847	65.318
2658.968819	72.135
2657.292790	75.674
2655.616761	79.292
2653.940732	84.992
2652.264703	93.078
2650.588674	90.687
2648.912646	81.143
2647.236617	69.015
2645.560588	63.938
2643.884559	63.219
2642.208530	69.725
2640.532501	76.126
2638.856473	94.247
2637.180444	122.73
2635.504415	202.65
2633.828386	317.32
2632.152357	322.81
2630.476328	221.19
2628.800300	150
2627.124271	119.21
2625.448242	112.36
2623.772213	117.8
2622.096184	130.52
2620.420155	153.45
2618.744127	172.32
2617.068098	190.38
2615.392069	196.55
2613.716040	205.49
2612.040011	207.12
2610.363982	199.25
2608.687954	188.34
2607.011925	189.47
2605.335896	215.27
2603.659867	230.83
2601.983838	215.57
2600.307809	170.56
2598.631781	133.98
2596.955752	113.27
2595.279723	105.4
2593.603694	99.312
2591.927665	96.173
2590.251636	106.35
2588.575608	97.832
2586.899579	76.809
2585.223550	70.431
2583.547521	65.812
2581.871492	61.512
2580.195463	60.748
2578.519435	67.387
2576.843406	68.296
2575.167377	84.4
2573.491348	97.534
2571.815319	92.947
2570.139290	95.187
2568.463262	86.863
2566.787233	80.474
2565.111204	77.453
2563.435175	80.49
2561.759146	75.988
2560.083118	66.268
2558.407089	60.16
2556.731060	60.095
2555.055031	52.3
2553.379002	55.464
2551.702973	59
2550.026945	59
2548.350916	61.955
2546.674887	64.695
2544.998858	74.562
2543.322829	69
2541.646800	67.613
2539.970772	61.843
2538.294743	64.778
2536.618714	71.46
2534.942685	78.811
2533.266656	81.422
2531.590627	86.091
2529.914599	77.757
2528.238570	78.874
2526.562541	75.411
2524.886512	76.055
2523.210483	72.791
2521.534454	72.543
2519.858426	66.56
2518.182397	59.679
2516.506368	58.309
2514.830339	50.245
2513.154310	53.9
2511.478281	43.415
2509.802253	47.249
2508.126224	44.583
2506.450195	41.653
2504.774166	40.487
2503.098137	45.398
2501.422108	44.295
2499.746080	43.193
2498.070051	43
2496.394022	42.932
2494.717993	37.684
2493.041964	42.568
2491.365935	41.317
2489.689907	45.764
2488.013878	50.48
2486.337849	54.345
2484.661820	57.721
2482.985791	64.572
2481.309762	74.295
2479.633734	79.218
2477.957705	88.512
2476.281676	84.558
2474.605647	83
2472.929618	83
2471.253590	78.854
2469.577561	77.467
2467.901532	80.431
2466.225503	88.32
2464.549474	96.383
2462.873445	96.084
2461.197417	105.74
2459.521388	111.79
2457.845359	114.61
2456.169330	121
2454.493301	107.6
2452.817272	83.988
2451.141244	72.25
2449.465215	63.95
2447.789186	63.758
2446.113157	63.024
2444.437128	38.908
2442.761099	50.171
2441.085071	44.959
2439.409042	44.837
2437.733013	49.101
2436.056984	47.456
2434.380955	49.55
2432.704926	51.731
2431.028898	49.524
2429.352869	46.245
2427.676840	46.148
2426.000811	58.582
2424.324782	55.196
2422.648753	57.735
2420.972725	61.237
2419.296696	60
2417.620667	67.921
2415.944638	76.627
2414.268609	75.755
2412.592580	69.961
2410.916552	72.721
2409.240523	72.958
2407.564494	71.111
2405.888465	72.604
2404.212436	74.416
2402.536407	73.381
2400.860379	72.116
2399.184350	68.879
2397.508321	66.699
2395.832292	69.695
2394.156263	66.037
2392.480234	66.831
2390.804206	75.014
2389.128177	77.538
2387.452148	72.46
2385.776119	66.521
2384.100090	55.934
2382.424062	52.23
2380.748033	44.178
2379.072004	34.687
2377.395975	32
2375.719946	32
2374.043917	35.498
2372.367889	30.234
2370.691860	31.905
2369.015831	29.604
2367.339802	27.65
2365.663773	30.905
2363.987744	30.68
2362.311716	28.414
2360.635687	27.777
2358.959658	28.559
2357.283629	31.447
2355.607600	30.385
2353.931571	29.109
2352.255543	30.948
2350.579514	29.231
2348.903485	33.28
2347.227456	35.223
2345.551427	35.083
2343.875398	33.775
2342.199370	32.651
2340.523341	30
2338.847312	30.632
2337.171283	31.713
2335.495254	38.357
2333.819225	42.629
2332.143197	47.781
2330.467168	69.147
2328.791139	73.587
2327.115110	78.986
2325.439081	80.779
2323.763052	75
2322.087024	75
2320.410995	75
2318.734966	77.97
2317.058937	81.345
2315.382908	85.006
2313.706879	82.68
2312.030851	89.263
2310.354822	90.986
2308.678793	74.12
2307.002764	59.452
2305.326735	49.782
2303.650706	46.342
2301.974678	37.023
2300.298649	33.346
2298.622620	32.376
2296.946591	29.399
2295.270562	29.676
2293.594534	29.247
2291.918505	26.517
2290.242476	28.708
2288.566447	29.978
2286.890418	32.266
2285.214389	35.981
2283.538361	29
2281.862332	29.829
2280.186303	32
2278.510274	33.272
2276.834245	35
2275.158216	35
2273.482188	32.423
2271.806159	39.606
2270.130130	53.268
2268.454101	59.45
2266.778072	59.066
2265.102043	46.973
2263.426015	42.532
2261.749986	36.85
2260.073957	34.003
2258.397928	30.22
2256.721899	36.184
2255.045870	36.471
2253.369842	37.467
2251.693813	32.849
2250.017784	29.419
2248.341755	30.145
2246.665726	31
2244.989697	27.583
2243.313669	26.076
2241.637640	26
2239.961611	23.122
2238.285582	25.259
2236.609553	25.411
2234.933524	20.334
2233.257496	24.669
2231.581467	26
2229.905438	25.059
2228.229409	26.687
2226.553380	26.581
2224.877351	24.327
2223.201323	24.738
2221.525294	22.583
2219.849265	26.358
2218.173236	27
2216.497207	29.989
2214.821178	26.863
2213.145150	25.537
2211.469121	28.399
2209.793092	26.529
2208.117063	26.681
2206.441034	24.788
2204.765006	25.541
2203.088977	25
2201.412948	23.826
2199.736919	25.603
2198.060890	27.714
2196.384861	31.11
2194.708833	26.113
2193.032804	34.031
2191.356775	35.966
2189.680746	40.886
2188.004717	36.819
2186.328688	35.61
2184.652660	36.425
2182.976631	26.446
2181.300602	25
2179.624573	25
2177.948544	24.079
2176.272515	25.086
2174.596487	24.091
2172.920458	22.641
2171.244429	27.215
2169.568400	29.762
2167.892371	31.643
2166.216342	34.643
2164.540314	30.296
2162.864285	27.999
2161.188256	25.643
2159.512227	20.704
2157.836198	25.472
2156.160169	23
2154.484141	23.293
2152.808112	25.052
2151.132083	27.408
2149.456054	27.534
2147.780025	29.092
2146.103996	28.678
2144.427968	29.548
2142.751939	30.306
2141.075910	24.752
2139.399881	24.612
2137.723852	23.275
2136.047823	27.588
2134.371795	23.134
2132.695766	23
2131.019737	22.915
2129.343708	22.276
2127.667679	23.418
2125.991650	21
2124.315622	21.604
2122.639593	23.356
2120.963564	24
2119.287535	22.607
2117.611506	19.964
2115.935478	21.856
2114.259449	23.375
2112.583420	23.677
2110.907391	25.46
2109.231362	26.781
2107.555333	34.511
2105.879305	29.794
2104.203276	29
2102.527247	27.02
2100.851218	22.917
2099.175189	21.464
2097.499160	25.713
2095.823132	24.194
2094.147103	25.245
2092.471074	25.704
2090.795045	26.382
2089.119016	28.604
2087.442987	28
2085.766959	30.474
2084.090930	30.28
2082.414901	27.406
2080.738872	27
2079.062843	30.455
2077.386814	29.782
2075.710786	29
2074.034757	29
2072.358728	29.883
2070.682699	30.931
2069.006670	29.041
2067.330641	22.103
2065.654613	26.441
2063.978584	31.039
2062.302555	24.499
2060.626526	25.721
2058.950497	21.259
2057.274468	21.082
2055.598440	21.108
2053.922411	24.205
2052.246382	19.901
2050.570353	16.975
2048.894324	20.665
2047.218295	24.732
2045.542267	23.51
2043.866238	20.666
2042.190209	19.289
2040.514180	19.754
2038.838151	17.604
2037.162122	21.212
2035.486094	20.229
2033.810065	19.07
2032.134036	17.056
2030.458007	18.014
2028.781978	19
2027.105949	19.299
2025.429921	21.575
2023.753892	19
2022.077863	19
2020.401834	19.266
2018.725805	20.924
2017.049777	23
2015.373748	21.828
2013.697719	21.293
2012.021690	22.055
2010.345661	20.487
2008.669632	21.104
2006.993604	20.816
2005.317575	21.262
2003.641546	21.329
2001.965517	21.71
2000.289488	20.5
1998.613459	23.154
1996.937431	24
1995.261402	25.73
1993.585373	20.575
1991.909344	18.116
1990.233315	21.918
1988.557286	23
1986.881258	23.164
1985.205229	24.89
1983.529200	15.039
1981.853171	22.498
1980.177142	25
1978.501113	25
1976.825085	23.622
1975.149056	19.688
1973.473027	20.391
1971.796998	21.468
1970.120969	19.837
1968.444940	21
1966.768912	20.022
1965.092883	19
1963.416854	18.441
1961.740825	18.593
1960.064796	20.88
1958.388767	23.321
1956.712739	23.305
1955.036710	23.728
1953.360681	21.712
1951.684652	21
1950.008623	21.828
1948.332594	22.86
1946.656566	21.213
1944.980537	22.852
1943.304508	23.958
1941.628479	22.019
1939.952450	21.158
1938.276421	27.567
1936.600393	20.085
1934.924364	21
1933.248335	21
1931.572306	20.465
1929.896277	18.417
1928.220249	20.239
1926.544220	22.079
1924.868191	24.4
1923.192162	22.341
1921.516133	21.717
1919.840104	22.223
1918.164076	21.417
1916.488047	22.446
1914.812018	24.427
1913.135989	26.504
1911.459960	29.662
1909.783931	29.757
1908.107903	25.058
1906.431874	23.616
1904.755845	22.712
1903.079816	22
1901.403787	19.206
1899.727758	23.805
1898.051730	26.752
1896.375701	27.778
1894.699672	28
1893.023643	35.486
1891.347614	34.428
1889.671585	29.582
1887.995557	29
1886.319528	26.197
1884.643499	24.081
1882.967470	27.938
1881.291441	23.029
1879.615412	25.898
1877.939384	23.058
1876.263355	23.833
1874.587326	21.678
1872.911297	19.26
1871.235268	20.075
1869.559239	16.067
1867.883211	21
1866.207182	19.659
1864.531153	16.477
1862.855124	19.654
1861.179095	17.459
1859.503066	21.628
1857.827038	22.664
1856.151009	21.642
1854.474980	22.136
1852.798951	23.599
1851.122922	22.577
1849.446893	22
1847.770865	23.392
1846.094836	25
1844.418807	23.989
1842.742778	22.474
1841.066749	19.819
1839.390721	19.13
1837.714692	20
1836.038663	20.604
1834.362634	20.376
1832.686605	20
1831.010576	22.646
1829.334548	20.599
1827.658519	18.301
1825.982490	18
1824.306461	18.735
1822.630432	21.258
1820.954403	21.229
1819.278375	17.848
1817.602346	15.388
1815.926317	17.467
1814.250288	22.196
1812.574259	17.863
1810.898230	15.254
1809.222202	19.442
1807.546173	22.715
1805.870144	23
1804.194115	24.872
1802.518086	21.192
1800.842057	21
1799.166029	23.948
1797.490000	21.008
1795.813971	20.038
1794.137942	23
1792.461913	22.875
1790.785884	19.888
1789.109856	18.344
1787.433827	22.833
1785.757798	21.192
1784.081769	22.89
1782.405740	21.876
1780.729711	20.864
1779.053683	19.553
1777.377654	17.97
1775.701625	23
1774.025596	22.071
1772.349567	18.988
1770.673538	23.209
1768.997510	24.221
1767.321481	25.466
1765.645452	27.731
1763.969423	31.529
1762.293394	34.136
1760.617365	29.276
1758.941337	29.713
1757.265308	28.405
1755.589279	25.771
1753.913250	23.635
1752.237221	25.654
1750.561193	27
1748.885164	27.691
1747.209135	29.354
1745.533106	29.636
1743.857077	25.278
1742.181048	20.522
1740.505020	23.388
1738.828991	24.794
1737.152962	23.974
1735.476933	21.412
1733.800904	23.262
1732.124875	23.288
1730.448847	20.564
1728.772818	20.441
1727.096789	21
1725.420760	19.18
1723.744731	17.923
1722.068702	18.531
1720.392674	18.473
1718.716645	18.041
1717.040616	17.97
1715.364587	17.528
1713.688558	16.99
1712.012529	19
1710.336501	19.495
1708.660472	19
1706.984443	17.456
1705.308414	17.037
1703.632385	18.522
1701.956356	19
1700.280328	19.53
1698.604299	19.466
1696.928270	19.537
1695.252241	20.54
1693.576212	21
1691.900183	19.907
1690.224155	17.902
1688.548126	18.101
1686.872097	19
1685.196068	19.554
1683.520039	18.887
1681.844010	18
1680.167982	19.678
1678.491953	21
1676.815924	22.123
1675.139895	19.063
1673.463866	17.688
1671.787837	20.126
1670.111809	18.746
1668.435780	17.563
1666.759751	18.563
1665.083722	19
1663.407693	17.875
1661.731665	19.246
1660.055636	18.194
1658.379607	16.559
1656.703578	13.652
1655.027549	16.569
1653.351520	18.223
1651.675492	17.106
1649.999463	15.245
1648.323434	14.646
1646.647405	17.093
1644.971376	14.737
1643.295347	15.246
1641.619319	17.461
1639.943290	14.86
1638.267261	13
1636.591232	14.582
1634.915203	18.618
1633.239174	18.92
1631.563146	15.969
1629.887117	16.021
1628.211088	18.012
1626.535059	18.498
1624.859030	18
1623.183001	18.491
1621.506973	19.486
1619.830944	18.076
1618.154915	19.327
1616.478886	19.712
1614.802857	15.072
1613.126828	16.286
1611.450800	20.804
1609.774771	20.334
1608.098742	18.312
1606.422713	21.72
1604.746684	23.154
1603.070655	22.83
1601.394627	23.184
1599.718598	22.4
1598.042569	21.823
1596.366540	20.383
1594.690511	20.624
1593.014482	19.265
1591.338454	18.716
1589.662425	19.301
1587.986396	18.34
1586.310367	18.338
1584.634338	16.356
1582.958309	15.311
1581.282281	15.697
1579.606252	14.416
1577.930223	14.972
1576.254194	18.642
1574.578165	15
1572.902137	15.999
1571.226108	18.281
1569.550079	16.456
1567.874050	17.35
1566.198021	15.205
1564.521992	16.385
1562.845964	18
1561.169935	17.831
1559.493906	17
1557.817877	17.144
1556.141848	18.131
1554.465819	18.644
1552.789791	16.317
1551.113762	19
1549.437733	18.764
1547.761704	16.39
1546.085675	22.154
1544.409646	24.773
1542.733618	19.183
1541.057589	26.99
1539.381560	26.005
1537.705531	25.02
1536.029502	17.28
1534.353473	18.9
1532.677445	26.474
1531.001416	19.652
1529.325387	21.71
1527.649358	17.561
1525.973329	19.615
1524.297300	21.709
1522.621272	24.516
1520.945243	21.712
1519.269214	24.219
1517.593185	23.424
1515.917156	23.77
1514.241127	23.246
1512.565099	19.32
1510.889070	20.874
1509.213041	26.905
1507.537012	24.221
1505.860983	25.986
1504.184954	24.772
1502.508926	21.746
1500.832897	22.216
1499.156868	25.355
1497.480839	23.582
1495.804810	24.301
1494.128781	24.876
1492.452753	23
1490.776724	24.473
1489.100695	29.3
1487.424666	31.195
1485.748637	30.291
1484.072609	31.59
1482.396580	31.388
1480.720551	35.678
1479.044522	40.268
1477.368493	41.547
1475.692464	54.943
1474.016436	71.037
1472.340407	87.445
1470.664378	78.253
1468.988349	60.638
1467.312320	51.231
1465.636291	48.169
1463.960263	49.146
1462.284234	49.503
1460.608205	46
1458.932176	46.688
1457.256147	55.158
1455.580118	58.116
1453.904090	62.068
1452.228061	74.76
1450.552032	82.653
1448.876003	87.659
1447.199974	81.651
1445.523945	100.4
1443.847917	98.713
1442.171888	129.63
1440.495859	185.2
1438.819830	287.56
1437.143801	500.17
1435.467772	754.85
1433.791744	829.1
1432.115715	619.06
1430.439686	362.05
1428.763657	237.49
1427.087628	192.13
1425.411599	160.93
1423.735571	135.53
1422.059542	111.62
1420.383513	91.223
1418.707484	81.166
1417.031455	76.845
1415.355426	71.586
1413.679398	68
1412.003369	66.273
1410.327340	64.9
1408.651311	66.988
1406.975282	60.709
1405.299253	55.397
1403.623225	49.601
1401.947196	47.153
1400.271167	43
1398.595138	42.671
1396.919109	39.683
1395.243080	36.097
1393.567052	37.945
1391.891023	35.036
1390.214994	35
1388.538965	36.85
1386.862936	36.106
1385.186908	34.275
1383.510879	34.83
1381.834850	38.196
1380.158821	33.631
1378.482792	32.734
1376.806763	40.018
1375.130735	47.015
1373.454706	56.003
1371.778677	78.103
1370.102648	103.69
1368.426619	108.08
1366.750590	84.364
1365.074562	52.839
1363.398533	36.256
1361.722504	33.196
1360.046475	32.367
1358.370446	33.665
1356.694417	36.192
1355.018389	39.263
1353.342360	42.057
1351.666331	47.837
1349.990302	41.893
1348.314273	36
1346.638244	36.087
1344.962216	36.742
1343.286187	32.043
1341.610158	34.936
1339.934129	38.772
1338.258100	33.562
1336.582071	36.477
1334.906043	37.832
1333.230014	38.794
1331.553985	36.727
1329.877956	41.038
1328.201927	42.317
1326.525898	43.934
1324.849870	44.393
1323.173841	50.252
1321.497812	58.179
1319.821783	60.508
1318.145754	63.166
1316.469725	80.225
1314.793697	122.95
1313.117668	192.16
1311.441639	238.16
1309.765610	182.61
1308.089581	94.983
1306.413552	64.587
1304.737524	58.272
1303.061495	58.858
1301.385466	47.725
1299.709437	42.903
1298.033408	36.184
1296.357380	36.932
1294.681351	39.673
1293.005322	36.603
1291.329293	37.615
1289.653264	33.405
1287.977235	31.275
1286.301207	33.729
1284.625178	35.639
1282.949149	35.403
1281.273120	35
1279.597091	38.58
1277.921062	41.531
1276.245034	39.725
1274.569005	36.473
1272.892976	36.367
1271.216947	39.527
1269.540918	35.749
1267.864889	34.794
1266.188861	35.451
1264.512832	43
1262.836803	42.637
1261.160774	38.224
1259.484745	45.86
1257.808716	45.062
1256.132688	47.675
1254.456659	45.461
1252.780630	52.206
1251.104601	53.244
1249.428572	56.545
1247.752543	65.287
1246.076515	77.007
1244.400486	95.097
1242.724457	126.44
1241.048428	175.5
1239.372399	214.85
1237.696370	214.48
1236.020342	191
1234.344313	169.86
1232.668284	154.62
1230.992255	152.32
1229.316226	180.37
1227.640197	224.34
1225.964169	350.26
1224.288140	670.52
1222.612111	1828.2
1220.936082	3925.9
1219.260053	4223
1217.584024	2272.5
1215.907996	1049.8
1214.231967	607.99
1212.555938	428.1
1210.879909	333.22
1209.203880	258.94
1207.527852	200.53
1205.851823	162.85
1204.175794	135.45
1202.499765	117.42
1200.823736	101.46
1199.147707	93.729
1197.471679	97.154
1195.795650	105.37
1194.119621	125.73
1192.443592	122.42
1190.767563	107.25
1189.091534	88.375
1187.415506	57.134
1185.739477	50.523
1184.063448	48.454
1182.387419	42.241
1180.711390	45.33
1179.035361	43.708
1177.359333	42.119
1175.683304	42.494
1174.007275	40.194
1172.331246	36.809
1170.655217	32.601
1168.979188	29.44
1167.303160	32.766
1165.627131	32.536
1163.951102	34.877
1162.275073	34
1160.599044	33.987
1158.923015	33.042
1157.246987	32.098
1155.570958	32.845
1153.894929	30.632
1152.218900	28.533
1150.542871	28.676
1148.866842	26.522
1147.190814	25
1145.514785	25.505
1143.838756	26.896
1142.162727	28
1140.486698	29.002
1138.810669	30.723
1137.134641	31.308
1135.458612	36.48
1133.782583	38.388
1132.106554	33.219
1130.430525	37.924
1128.754496	38.925
1127.078468	36.4
1125.402439	40.845
1123.726410	40.503
1122.050381	44.826
1120.374352	49.518
1118.698324	51.569
1117.022295	53.018
1115.346266	58.493
1113.670237	66.335
1111.994208	73.288
1110.318179	84.555
1108.642151	101.56
1106.966122	124.42
1105.290093	162.91
1103.614064	241.06
1101.938035	398.62
1100.262006	655.44
1098.585978	962.33
1096.909949	1228
1095.233920	1123.2
1093.557891	703.41
1091.881862	329.87
1090.205833	155.73
1088.529805	98.306
1086.853776	68.971
1085.177747	54.337
1083.501718	54.452
1081.825689	52.579
1080.149660	49.245
1078.473632	38.917
1076.797603	37.85
1075.121574	30.363
1073.445545	28.221
1071.769516	28
1070.093487	28
1068.417459	28.695
1066.741430	23.954
1065.065401	22.694
1063.389372	23.5
1061.713343	21.699
1060.037314	18.897
1058.361286	17.302
1056.685257	18.471
1055.009228	20.338
1053.333199	21.693
1051.657170	18.964
1049.981141	18.031
1048.305113	14.39
1046.629084	18.176
1044.953055	19.767
1043.277026	16.501
1041.600997	17.527
1039.924968	17.307
1038.248940	16.992
1036.572911	18.856
1034.896882	20
1033.220853	18.835
1031.544824	16.443
1029.868796	17.694
1028.192767	16.168
1026.516738	17.939
1024.840709	14.22
1023.164680	17.502
1021.488651	18
1019.812623	18
1018.136594	16.002
1016.460565	19.169
1014.784536	23.05
1013.108507	23.545
1011.432478	24.916
1009.756450	28.312
1008.080421	28.758
1006.404392	27.659
1004.728363	25.801
1003.052334	24.187
1001.376305	30.688
999.700277	31.883
998.024248	33.622
996.348219	35.477
994.672190	35.333
992.996161	35
991.320132	40.721
989.644104	49.578
987.968075	55.873
986.292046	59.903
984.616017	62.227
982.939988	64.536
981.263959	73.883
979.587931	84.287
977.911902	128.72
976.235873	220.31
974.559844	463.41
972.883815	1044.3
971.207786	1657.8
969.531758	1571.3
967.855729	962.76
966.179700	469.52
964.503671	265.22
962.827642	164.36
961.151613	109.88
959.475585	82
957.799556	82.028
956.123527	82.95
954.447498	100.49
952.771469	139.71
951.095440	185.05
949.419412	229.9
947.743383	213.56
946.067354	153.25
944.391325	100.12
942.715296	71.662
941.039268	60.182
939.363239	49.332
937.687210	36.203
936.011181	29.063
934.335152	31.829
932.659123	23.361
930.983095	22
929.307066	24.821
927.631037	21.617
925.955008	18.453
924.278979	18.935
922.602950	19.224
920.926922	18
919.250893	18
917.574864	17.852
915.898835	16.866
914.222806	15.026
912.546777	16.81
910.870749	15.351
909.194720	13.514
907.518691	16.308
905.842662	16.258
904.166633	15
902.490604	13.747
900.814576	11.664
899.138547	11.506
897.462518	12.658
895.786489	11.354
894.110460	14.978
892.434431	11.307
890.758403	11
889.082374	12.513
887.406345	13.673
885.730316	14.589
884.054287	13.987
882.378258	13
880.702230	12.323
879.026201	10.491
877.350172	9.1699
875.674143	9.9141
873.998114	9.0016
872.322085	9.9164
870.646057	10
868.970028	10
867.293999	9.3389
865.617970	9
863.941941	9.9793
862.265912	11
860.589884	9.4102
858.913855	6.9272
857.237826	9.8543
855.561797	9.1785
853.885768	11.917
852.209739	11.114
850.533711	9.4019
848.857682	9.7121
847.181653	8.7511
845.505624	9.6107
843.829595	10.101
842.153567	9.3612
840.477538	9.4536
838.801509	8.1851
837.125480	9
835.449451	9.0089
833.773422	9.9199
832.097394	10.83
830.421365	8.772
828.745336	8.6531
827.069307	9.5637
825.393278	9.5252
823.717249	9.3853
822.041221	9.1141
820.365192	7.4105
818.689163	9
817.013134	9
815.337105	9
813.661076	8.1557
811.985048	10.26
810.309019	9.675
808.632990	9.5714
806.956961	10
805.280932	9.6115
803.604903	9.5944
801.928875	11
800.252846	11.453
798.576817	15.042
796.900788	16.857
795.224759	14.49
793.548730	11.768
791.872702	10.349
790.196673	10.558
788.520644	10.069
786.844615	9.7436
785.168586	11
783.492557	11.185
781.816529	12.274
780.140500	14.992
778.464471	18.614
776.788442	15.764
775.112413	17.144
773.436384	17.379
771.760356	18.051
770.084327	20.292
768.408298	22.671
766.732269	27.121
765.056240	42.081
763.380211	78.623
761.704183	199.79
760.028154	690.72
758.352125	1402
756.676096	1411.2
755.000067	853.35
753.324039	349.63
751.648010	143.59
749.971981	73.255
748.295952	38.81
746.619923	19.829
744.943894	18.024
743.267866	14.436
741.591837	10.032
739.915808	9.695
738.239779	10.597
736.563750	11
734.887721	11
733.211693	10.394
731.535664	10.428
729.859635	15.578
728.183606	11.994
726.507577	11.092
724.831548	7.7688
723.155520	9.8329
721.479491	10.391
719.803462	9.4908
718.127433	8.5908
716.451404	8
714.775375	8
713.099347	8.1087
711.423318	9
709.747289	9
708.071260	9
706.395231	7.5901
704.719202	7
703.043174	5.9958
701.367145	5.8012
699.691116	6.1024
698.015087	4.5926
696.339058	7
694.663029	7
692.987001	6.1095
691.310972	5.2119
689.634943	5.6856
687.958914	8.3306
686.282885	10
684.606856	8.8687
682.930828	7.5475
681.254799	8.6594
679.578770	6.8678
677.902741	5.0744
676.226712	10.151
674.550683	6.4741
672.874655	6.3001
671.198626	7.5457
669.522597	8.4411
667.846568	9.3362
666.170539	9.7682
664.494511	8.3671
662.818482	4.0641
661.142453	6.7486
659.466424	8.6203
657.790395	7.5918
656.114366	7
654.438338	7.4928
652.762309	8
651.086280	8.8387
649.410251	10.48
647.734222	7.9336
646.058193	7.0398
644.382165	12.119
642.706136	14.492
641.030107	28.406
639.354078	47.151
637.678049	56.153
636.002020	46.48
634.325992	24.679
632.649963	11.8
630.973934	10.016
629.297905	7.3518
627.621876	9.3214
625.945847	10.664
624.269819	11
622.593790	9.6586
620.917761	7.3236
619.241732	5.7709
617.565703	5
615.889674	5.0188
614.213646	6.7991
612.537617	4.6307
610.861588	5.3584
609.185559	7.1381
607.509530	7.0824
605.833501	6
604.157473	6.237
602.481444	6.8745
600.805415	6.0147
599.129386	6.903
597.453357	5.4156
595.777328	5.6807
594.101300	4.2945
592.425271	3.4563
590.749242	3.6556
589.073213	3.6959
587.397184	6.1201
585.721155	7
584.045127	7
582.369098	5.4372
580.693069	5
579.017040	3.8896
577.341011	3.4421
575.664983	3.6713
573.988954	3.8595
572.312925	6.7988
570.636896	5.0258
568.960867	5
567.284838	3.4834
565.608810	4.2876
563.932781	6.0588
562.256752	6.1708
560.580723	5
558.904694	4.8161
557.228665	4.0685
555.552637	4.9532
553.876608	5
552.200579	5
550.524550	5.6066
548.848521	5.0192
547.172492	3.6258
545.496464	3
543.820435	3.1414
542.144406	4.0243
540.468377	4.9071
538.792348	5.7908
537.116319	3.9783
535.440291	3
533.764262	3.8771
532.088233	5.321
530.412204	5.7969
528.736175	4.915
527.060146	4.0331
525.384118	4.8488
523.708089	2.0769
522.032060	2.8362
520.356031	4.4931
518.680002	5
517.003973	4.4896
515.327945	2.8639
513.651916	2.0648
511.975887	5.589
510.299858	3.6675
508.623829	3.6576
506.947800	3.4622
505.271772	4.2523
503.595743	5.406
501.919714	4
500.243685	4.1684
498.567656	6.8061
496.891627	4.5561
495.215599	4
493.539570	5.7161
491.863541	6.5491
490.187512	6.3291
488.511483	7
486.835455	7
485.159426	7
483.483397	7
481.807368	6.2809
480.131339	6
478.455310	6.9477
476.779282	6.946
475.103253	5.914
473.427224	8.5797
471.751195	5.0736
470.075166	6.7162
468.399137	7
466.723109	8.2223
465.047080	9.4872
463.371051	10
461.695022	10
460.018993	10
458.342964	10
456.666936	13.461
454.990907	11.779
453.314878	11
451.638849	11
449.962820	14.29
448.286791	22.4
446.610763	32.052
444.934734	47.798
443.258705	83.369
441.582676	134.66
439.906647	130.24
438.230618	90.878
436.554590	50.502
434.878561	25.693
433.202532	17.792
431.526503	16.046
429.850474	15.15
428.174445	15.722
426.498417	14.215
424.822388	11.13
423.146359	10.36
421.470330	12.576
419.794301	11
418.118272	11
416.442244	12.654
414.766215	15.096
413.090186	13.72
411.414157	13.764
409.738128	16
408.062099	16.182
406.386071	17.483
404.710042	25.315
403.034013	22.822
401.357984	27.981
399.681955	35.279
398.005927	36.166
396.329898	26.789
394.653869	12.712
392.977840	10.929
391.301811	6.5867
389.625782	6
387.949754	7.8622
386.273725	8.5101
384.597696	7.6411
382.921667	6.7725
381.245638	6
379.569609	6
377.893581	6.832
376.217552	6.3001
374.541523	4.2972
372.865494	3.8704
371.189465	5
369.513436	4.8295
367.837408	4.0744
366.161379	5.808
364.485350	6
362.809321	5.3624
361.133292	5
359.457263	6.4832
357.781235	7.8163
356.105206	3.8972
354.429177	3.0304
352.753148	3
351.077119	3
349.401090	4.1315
347.725062	5.4312
346.049033	6.2968
344.373004	6.3523
342.696975	3.0538
341.020946	4.7822
339.344917	4.2439
337.668889	4.6204
335.992860	5
334.316831	4.3023
332.640802	3.4255
330.964773	5.1523
329.288744	6.8806
327.612716	4.5888
325.936687	3.3329
324.260658	4.0606
322.584629	4.2135
320.908600	2.744
319.232571	2.3573
317.556543	4.9446
315.880514	3.312
314.204485	4.4128
312.528456	5.5682
310.852427	5.5696
309.176398	5
307.500370	4.5379
305.824341	2.0467
304.148312	4.6314
302.472283	5
300.796254	3.8013
299.120226	4.3812
297.444197	5.3577
295.768168	4.1816
294.092139	4.8753
292.416110	2.2932
290.740081	2.7621
289.064053	2.3779
287.388024	2
285.711995	2
284.035966	2.2015
282.359937	3.0613
280.683908	3.9203
279.007880	1.6619
277.331851	4.1916
275.655822	4.508
273.979793	3
272.303764	3.4285
270.627735	5.0731
268.951707	5.9313
267.275678	4.4211
265.599649	2.7061
263.923620	4.0187
262.247591	5.6375
260.571562	4.7802
258.895534	4
257.219505	4
255.543476	3.2084
253.867447	4.2963
252.191418	4.4954
250.515389	4.3613
248.839361	4.5636
247.163332	3
245.487303	3
243.811274	3
242.135245	3
240.459216	3
238.783188	2.6464
237.107159	3.0444
235.431130	6.6816
233.755101	2.4038
232.079072	4.322
230.403043	3.7425
228.727015	3
227.050986	3
225.374957	2.8081
223.698928	2.0465
222.022899	2.9003
220.346870	5.2626
218.670842	4.7838
216.994813	3.5385
215.318784	2.3703
213.642755	1.5054
211.966726	4
210.290698	4
208.614669	4.7267
206.938640	3.8409
205.262611	3.4321
203.586582	3.4314
201.910553	2.1364
200.234525	2.9885
198.558496	3
196.882467	2.307
195.206438	3.6336
193.530409	4.2082
191.854380	3.2471
190.178352	3.9015
188.502323	3.0501
186.826294	3
185.150265	3
183.474236	2.4987
181.798207	2.3517
180.122179	3.4044
178.446150	4.8947
176.770121	3.1954
175.094092	3.7526
173.418063	4
171.742034	3.5482
170.066006	3.3007
168.389977	3.8497
166.713948	3.0009
165.037919	3.8486
163.361890	2.6047
161.685861	2.5458
160.009833	3
158.333804	3.2427
156.657775	3.9092
154.981746	3.0613
153.305717	5.3598
151.629688	4.7308
149.953660	3.5174
148.277631	3.3301
146.601602	4
144.925573	4.0243
143.249544	4.8714
141.573515	5.7186
139.897487	4.8696
138.221458	4.8237
136.545429	5.4825
134.869400	4.3146
133.193371	6.851
131.517342	5.4068
129.841314	3.7143
128.165285	3.9772
126.489256	3.9977
124.813227	2.8976
123.137198	6.975
121.461170	6.1304
119.785141	6.7148
118.109112	5.8804
116.433083	5.8087
114.757054	6.7509
113.081025	6
111.404997	6
109.728968	6.7818
108.052939	3.8707
106.376910	4.3481
104.700881	7.9393
103.024852	9.5313
101.348824	7
##END=
